10 54
1040.613 LNC
5
  551632.900  1846918.180
  551634.030  1846918.470
  551655.320  1846925.480
  551631.280  1846959.840
  551603.650  1846970.600
end
1 54
30309.233 L/n
33
  551705.140  1847127.600
  551739.530  1847103.690
  551846.780  1846977.570
  551846.780  1846977.570
  551844.080  1846938.960
  551840.220  1846936.440
  551808.010  1846920.160
  551782.710  1846916.530
  551731.990  1846922.320
  551668.030  1846929.670
  551668.030  1846929.670
  551655.320  1846925.480
  551655.320  1846925.480
  551631.280  1846959.840
  551631.280  1846959.840
  551578.360  1847017.450
  551578.360  1847017.450
  551562.750  1847022.920
  551562.750  1847022.920
  551541.910  1847036.120
  551541.910  1847036.120
  551527.710  1847064.240
  551527.710  1847064.240
  551598.670  1847080.850
  551666.670  1847042.950
  551714.880  1846994.710
  551833.670  1846946.470
  551785.670  1846981.400
  551740.130  1847025.670
  551740.130  1847025.670
  551687.190  1847093.630
  551687.190  1847093.630
  551705.140  1847127.600
end
5 54
1523.846 L/n
10
  551603.650  1846970.600
  551631.280  1846959.840
  551631.280  1846959.840
  551578.360  1847017.450
  551578.360  1847017.450
  551562.750  1847022.920
  551562.750  1847022.920
  551577.180  1846969.440
  551577.180  1846969.440
  551603.650  1846970.600
end
9 54
1548.154 L/n
10
  551607.250  1846911.730
  551608.060  1846911.910
  551608.060  1846911.910
  551632.900  1846918.180
  551632.900  1846918.180
  551603.650  1846970.600
  551603.650  1846970.600
  551577.180  1846969.440
  551577.180  1846969.440
  551607.250  1846911.730
end
