50 52
4009.830 L/n
7
  551309.820  1847532.390
  551309.290  1847569.540
  551278.220  1847558.010
  551274.070  1847560.740
  551265.890  1847566.120
  551229.120  1847542.810
  551251.500  1847483.730
end
51 52
5999.065 L/n
12
  551339.790  1847466.290
  551373.470  1847525.420
  551373.470  1847525.420
  551347.280  1847590.810
  551347.280  1847590.810
  551339.540  1847585.560
  551309.290  1847569.540
  551309.290  1847569.540
  551309.830  1847532.390
  551309.830  1847532.390
  551303.820  1847457.750
  551339.790  1847466.290
end
67 52
26525.041 L/n
20
  551433.300  1847258.200
  551417.250  1847280.290
  551397.850  1847312.170
  551397.850  1847312.170
  551369.070  1847359.480
  551388.570  1847379.810
  551388.570  1847379.810
  551373.490  1847457.170
  551373.490  1847457.170
  551343.270  1847464.310
  551343.270  1847464.310
  551339.790  1847466.290
  551339.790  1847466.290
  551303.820  1847457.750
  551309.830  1847532.390
  551309.830  1847532.390
  551251.500  1847483.730
  551251.500  1847483.730
  551254.880  1847300.120
  551433.300  1847258.200
end
